Time[sec]	Dyno_Speed[mph]	Dyno_Tractive_Effort[N]	Test_Cell_Temp[C]	Test_Cell_RH[%]	Phase_#	HV_Battery_Current[A]	HV_Battery_Voltage[V]	HV_Battery_SOC[%]	Accelerator_Pedal_Position[%]
-10.000	0.010	-12.504	33.823	48.681	0.000	-0.119	0.887	0.000	0.000
-9.900	0.010	-12.383	33.824	48.680	0.000	-0.116	1.095	0.000	0.000
-9.800	0.010	-12.406	33.822	48.679	0.000	-0.114	1.956	0.000	0.000
-9.700	0.010	-12.142	33.823	48.680	0.000	-0.102	2.891	56.463	0.000
-9.600	0.010	-12.284	33.823	48.681	0.000	-0.083	2.922	101.422	0.000
-9.500	0.010	-12.202	33.821	48.680	0.000	-0.055	2.957	102.300	0.000
-9.400	0.010	-12.290	33.823	48.681	0.000	-0.042	2.974	102.300	0.000
-9.300	0.010	-12.300	33.823	48.680	0.000	-0.048	2.993	102.300	0.000
-9.200	0.010	-12.268	33.825	48.680	0.000	-0.034	3.016	102.300	0.000
-9.100	0.009	-12.133	33.823	48.680	0.000	0.491	84.890	102.300	0.000
-9.000	0.010	-12.381	33.824	48.680	0.000	1.407	321.336	56.930	0.000
-8.900	0.009	-12.312	33.824	48.680	0.000	0.080	375.123	56.600	0.000
-8.800	0.010	-12.268	33.825	48.680	0.000	0.010	378.549	56.600	0.000
-8.700	0.010	-12.297	33.824	48.679	0.000	0.007	379.187	56.600	0.000
-8.600	0.009	-12.204	33.826	48.679	0.000	-0.001	379.187	56.600	0.000
-8.500	0.010	-12.352	33.826	48.678	0.000	-0.005	379.182	56.600	0.000
-8.400	0.009	-12.308	33.826	48.678	0.000	-0.000	379.180	56.600	0.000
-8.300	0.009	-12.332	33.826	48.678	0.000	-0.003	379.163	56.600	0.000
-8.200	0.009	-12.336	33.826	48.678	0.000	0.514	379.108	56.600	0.000
-8.100	0.010	-12.336	33.826	48.678	0.000	1.869	379.037	56.600	0.000
-8.000	0.010	-12.433	33.826	48.678	0.000	1.740	379.048	56.600	0.000
-7.900	0.010	-12.348	33.828	48.678	0.000	1.675	379.056	56.600	0.000
-7.800	0.010	-12.243	33.829	48.677	0.000	1.572	379.062	56.600	0.000
-7.700	0.010	-12.197	33.829	48.676	0.000	1.497	379.069	56.600	0.000
-7.600	0.010	-12.192	33.829	48.675	0.000	1.433	379.080	56.600	0.000
-7.500	0.010	-12.350	33.828	48.676	0.000	1.372	379.078	56.600	0.000
-7.400	0.010	-12.246	33.829	48.676	0.000	1.287	379.079	56.600	0.000
-7.300	0.010	-12.134	33.829	48.676	0.000	1.231	379.076	56.600	0.000
-7.200	0.010	-12.308	33.829	48.676	0.000	1.191	379.090	56.600	0.000
-7.100	0.009	-12.336	33.829	48.673	0.000	1.168	379.102	56.600	0.000
-7.000	0.010	-12.150	33.827	48.675	0.000	1.134	379.098	56.600	0.000
-6.900	0.010	-12.337	33.828	48.674	0.000	1.112	379.105	56.600	0.000
-6.800	0.010	-12.219	33.829	48.673	0.000	1.122	379.104	56.600	0.000
-6.700	0.010	-12.192	33.828	48.675	0.000	1.237	379.091	56.600	0.000
-6.600	0.009	-12.530	33.829	48.674	0.000	1.449	379.082	56.600	0.000
-6.500	0.010	-12.342	33.830	48.673	0.000	1.563	379.071	56.600	0.000
-6.400	0.010	-12.239	33.831	48.672	0.000	1.331	379.088	56.600	0.000
-6.300	0.011	-12.438	33.831	48.672	0.000	1.105	379.087	56.600	0.000
-6.200	0.009	-12.420	33.831	48.672	0.000	1.180	379.091	56.600	0.000
-6.100	0.010	-12.499	33.831	48.671	0.000	1.346	379.088	56.600	0.000
-6.000	0.010	-12.154	33.831	48.671	0.000	1.420	379.080	56.600	0.000
-5.900	0.010	-12.233	33.831	48.671	0.000	1.519	379.063	56.600	0.000
-5.800	0.010	-12.294	33.831	48.672	0.000	1.590	379.054	56.600	0.000
-5.700	0.010	-12.150	33.831	48.670	0.000	1.693	379.042	56.600	0.000
-5.600	0.010	-12.269	33.831	48.670	0.000	1.801	379.032	56.600	0.000
-5.500	0.010	-12.181	33.831	48.670	0.000	1.912	379.035	56.600	0.000
-5.400	0.010	-12.275	33.830	48.670	0.000	2.059	379.023	56.600	0.000
-5.300	0.010	-12.212	33.831	48.670	0.000	2.175	379.011	56.600	0.000
-5.200	0.009	-12.399	33.831	48.671	0.000	2.149	379.001	56.600	0.000
-5.100	0.009	-12.243	33.831	48.670	0.000	2.131	379.007	56.600	0.000
-5.000	0.010	-12.336	33.832	48.669	0.000	2.129	379.006	56.600	0.000
-4.900	0.011	-12.140	33.832	48.668	0.000	2.131	379.001	56.600	0.000
-4.800	0.010	-12.199	33.832	48.667	0.000	2.145	378.997	56.600	0.000
-4.700	0.010	-12.228	33.833	48.668	0.000	2.125	379.006	56.600	0.000
-4.600	0.010	-12.228	33.832	48.669	0.000	2.121	379.015	56.600	0.000
-4.500	0.010	-12.228	33.832	48.668	0.000	2.131	379.014	56.600	0.000
-4.400	0.010	-12.372	33.832	48.667	0.000	2.118	379.006	56.600	0.000
-4.300	0.010	-12.380	33.834	48.666	0.000	2.096	378.994	56.600	0.000
-4.200	0.010	-12.316	33.834	48.665	0.000	2.087	378.998	56.600	0.000
-4.100	0.010	-12.380	33.835	48.664	0.000	2.092	378.996	56.600	0.000
-4.000	0.010	-12.297	33.834	48.664	0.000	2.087	379.002	56.600	0.000
-3.900	0.010	-12.292	33.835	48.663	0.000	2.088	379.008	56.600	0.000
-3.800	0.010	-12.300	33.835	48.663	0.000	2.076	379.000	56.600	0.000
-3.700	0.010	-12.387	33.834	48.663	0.000	2.071	379.002	56.600	0.000
-3.600	0.010	-12.529	33.836	48.663	0.000	2.070	378.998	56.600	0.000
-3.500	0.010	-12.361	33.837	48.663	0.000	2.061	378.995	56.600	0.000
-3.400	0.010	-12.237	33.837	48.661	0.000	2.064	378.996	56.600	0.000
-3.300	0.010	-12.159	33.837	48.661	0.000	2.066	378.998	56.600	0.000
-3.200	0.010	-12.228	33.837	48.661	0.000	2.061	378.995	56.600	0.000
-3.100	0.010	-12.533	33.836	48.661	0.000	2.056	378.995	56.600	0.000
-3.000	0.010	-12.132	33.837	48.660	0.000	2.066	378.999	56.600	0.000
-2.900	0.010	-12.288	33.839	48.660	0.000	2.068	379.009	56.600	0.000
-2.800	0.010	-12.463	33.840	48.659	0.000	2.062	379.002	56.600	0.000
-2.700	0.010	-12.300	33.840	48.659	0.000	2.062	378.996	56.600	0.000
-2.600	0.010	-12.267	33.841	48.659	0.000	2.059	378.994	56.600	0.000
-2.500	0.010	-12.196	33.842	48.659	0.000	2.067	379.014	56.600	0.000
-2.400	0.010	-12.356	33.841	48.659	0.000	2.071	379.017	56.600	0.000
-2.300	0.010	-12.442	33.841	48.659	0.000	2.073	378.998	56.600	0.000
-2.200	0.010	-12.414	33.841	48.658	0.000	2.062	378.993	56.600	0.000
-2.100	0.010	-12.436	33.843	48.658	0.000	2.047	378.988	56.600	0.000
-2.000	0.010	-12.288	33.844	48.658	0.000	2.049	378.989	56.600	0.000
-1.900	0.010	-12.284	33.844	48.657	0.000	2.048	378.994	56.600	0.000
-1.800	0.010	-12.391	33.844	48.657	0.000	2.052	378.999	56.600	0.000
-1.700	0.010	-12.335	33.843	48.658	0.000	2.057	378.998	56.600	0.000
-1.600	0.010	-12.283	33.843	48.658	0.000	2.139	378.991	56.600	0.000
-1.500	0.010	-12.319	33.844	48.657	0.000	2.314	378.992	56.600	0.000
-1.400	0.010	-12.279	33.844	48.656	0.000	2.135	379.003	56.600	0.000
-1.300	0.010	-12.285	33.844	48.655	0.000	2.082	379.003	56.600	0.000
-1.200	0.010	-12.467	33.844	48.655	0.000	2.027	378.999	56.600	0.000
-1.100	0.010	-12.423	33.844	48.655	0.000	2.032	378.987	56.600	0.000
-1.000	0.010	-12.264	33.843	48.654	0.000	2.035	378.988	56.600	0.000
-0.900	0.010	-12.301	33.843	48.653	0.000	2.040	378.994	56.600	0.000
-0.800	0.010	-12.336	33.844	48.654	0.000	2.032	378.980	56.600	0.000
-0.700	0.010	-12.318	33.845	48.655	0.000	2.045	378.992	56.600	0.000
-0.600	0.010	-12.191	33.845	48.655	0.000	2.046	378.993	56.600	0.000
-0.500	0.010	-12.084	33.845	48.655	0.000	2.065	378.998	56.600	0.000
-0.400	0.010	-12.102	33.845	48.655	0.000	2.074	378.996	56.600	0.000
-0.300	0.010	-12.208	33.845	48.654	0.000	2.090	378.998	56.600	0.000
-0.200	0.010	-12.318	33.845	48.654	0.000	2.104	378.996	56.600	0.000
-0.100	0.010	-12.440	33.845	48.654	0.000	2.095	378.995	56.600	0.000
-0.000	0.010	-12.552	33.847	48.653	0.000	2.079	378.984	56.600	0.000
0.100	0.010	-12.434	33.849	48.652	0.471	2.069	378.994	56.600	0.000
0.200	0.010	-12.300	33.850	48.652	1.000	2.042	378.990	56.600	0.000
0.300	0.010	-12.266	33.850	48.652	1.000	2.037	378.996	56.600	0.000
0.400	0.010	-12.280	33.850	48.653	1.000	2.041	378.991	56.600	0.000
0.500	0.009	-12.405	33.850	48.653	1.000	2.057	378.997	56.600	0.000
0.600	0.009	-12.343	33.849	48.652	1.000	2.073	378.991	56.600	0.000
0.700	0.009	-12.329	33.849	48.651	1.000	2.055	378.991	56.600	0.000
0.800	0.010	-12.379	33.849	48.650	1.000	2.053	379.001	56.600	0.000
0.900	0.009	-12.151	33.849	48.651	1.000	2.047	378.992	56.600	0.000
1.000	0.009	-12.028	33.849	48.650	1.000	2.042	378.981	56.600	0.000
1.100	0.010	-12.181	33.849	48.650	1.000	2.034	378.979	56.600	0.000
1.200	0.010	-12.271	33.850	48.649	1.000	2.021	378.967	56.600	0.000
1.300	0.010	-12.224	33.850	48.650	1.000	2.045	378.979	56.600	0.000
1.400	0.010	-12.264	33.851	48.652	1.000	2.112	378.989	56.600	0.000
1.500	0.010	-12.280	33.851	48.652	1.000	2.097	378.993	56.600	0.000
1.600	0.009	-12.316	33.851	48.653	1.000	2.044	378.998	56.600	0.000
1.700	0.010	-12.336	33.852	48.653	1.000	2.025	378.995	56.600	0.000
1.800	0.010	-12.290	33.852	48.653	1.000	2.033	378.996	56.600	0.000
1.900	0.010	-12.259	33.852	48.653	1.000	2.049	378.999	56.600	0.000
2.000	0.010	-12.285	33.852	48.653	1.000	2.044	378.997	56.600	0.000
2.100	0.010	-12.401	33.852	48.652	1.000	2.030	378.986	56.600	0.000
2.200	0.010	-12.465	33.854	48.652	1.000	2.025	378.982	56.600	0.000
2.300	0.010	-12.378	33.855	48.653	1.000	2.015	378.987	56.600	0.000
2.400	0.010	-12.388	33.855	48.653	1.000	2.021	378.986	56.600	0.000
2.500	0.010	-12.310	33.855	48.652	1.000	2.045	378.996	56.600	0.000
2.600	0.010	-12.342	33.855	48.652	1.000	2.037	378.998	56.600	0.000
2.700	0.010	-12.315	33.855	48.653	1.000	2.039	378.992	56.600	0.000
2.800	0.010	-12.381	33.855	48.653	1.000	2.033	378.991	56.600	0.000
2.900	0.010	-12.387	33.856	48.652	1.000	2.019	378.988	56.600	0.000
3.000	0.010	-12.300	33.857	48.652	1.000	2.026	378.989	56.600	0.000
3.100	0.010	-12.286	33.857	48.653	1.000	2.010	378.991	56.600	0.000
3.200	0.010	-12.249	33.857	48.652	1.000	1.977	378.977	56.600	0.000
3.300	0.010	-12.257	33.857	48.652	1.000	1.977	378.982	56.600	0.000
3.400	0.010	-12.314	33.857	48.653	1.000	1.950	378.988	56.600	0.000
3.500	0.010	-12.394	33.858	48.653	1.000	1.991	378.989	56.600	0.000
3.600	0.010	-12.409	33.858	48.654	1.000	2.003	378.992	56.600	0.000
3.700	0.010	-12.314	33.858	48.655	1.000	1.993	378.994	56.600	0.000
3.800	0.010	-12.364	33.858	48.654	1.000	1.989	378.989	56.600	0.000
3.900	0.010	-12.380	33.857	48.654	1.000	1.986	378.995	56.600	0.000
4.000	0.010	-12.434	33.858	48.655	1.000	1.984	378.995	56.600	0.000
4.100	0.010	-12.451	33.859	48.655	1.000	1.979	378.994	56.600	0.000
4.200	0.042	-12.173	33.858	48.655	1.000	2.006	378.980	56.600	0.000
4.300	0.151	22.583	33.858	48.654	1.000	2.123	378.955	56.600	0.000
4.400	0.279	189.732	33.860	48.654	1.000	2.172	378.963	56.600	0.000
4.500	0.377	437.922	33.860	48.654	1.000	2.333	378.955	56.600	0.000
4.600	0.474	612.359	33.859	48.655	1.000	2.547	378.945	56.600	0.000
4.700	0.572	744.383	33.859	48.655	1.000	2.660	378.929	56.600	0.000
4.800	0.689	762.420	33.859	48.655	1.000	2.720	378.925	56.600	0.000
4.900	0.829	751.772	33.859	48.654	1.000	2.935	378.916	56.600	1.933
5.000	0.953	779.480	33.860	48.654	1.000	3.256	378.888	56.600	2.494
5.100	1.078	844.926	33.861	48.656	1.000	3.657	378.854	56.600	2.986
5.200	1.236	914.138	33.861	48.656	1.000	3.943	378.805	56.600	4.983
5.300	1.420	979.545	33.861	48.656	1.000	4.556	378.751	56.600	6.480
5.400	1.617	1099.534	33.861	48.655	1.000	5.360	378.699	56.600	6.982
5.500	1.828	1247.239	33.862	48.656	1.000	6.158	378.651	56.600	8.480
5.600	2.060	1368.989	33.862	48.656	1.000	7.158	378.568	56.600	12.459
5.700	2.331	1518.988	33.862	48.656	1.000	8.837	378.416	56.600	13.482
5.800	2.649	1756.659	33.863	48.658	1.000	10.674	378.263	56.600	13.006
5.900	2.960	1980.889	33.864	48.659	1.000	12.056	378.149	56.600	13.000
6.000	3.274	2072.141	33.864	48.659	1.000	13.059	378.061	56.600	13.000
6.100	3.581	2074.503	33.864	48.659	1.000	13.785	377.994	56.600	13.494
6.200	3.879	2040.059	33.864	48.659	1.000	14.337	377.943	56.600	13.500
6.300	4.169	1994.383	33.865	48.659	1.000	14.787	377.902	56.600	13.981
6.400	4.463	1948.459	33.866	48.659	1.000	15.289	377.853	56.600	14.481
6.500	4.744	1915.080	33.865	48.659	1.000	15.847	377.809	56.600	14.500
6.600	5.007	1881.886	33.865	48.659	1.000	16.367	377.758	56.600	14.500
6.700	5.277	1839.262	33.864	48.659	1.000	16.900	377.707	56.600	14.003
6.800	5.539	1814.987	33.864	48.659	1.000	17.351	377.657	56.600	14.000
6.900	5.811	1787.340	33.864	48.659	1.000	17.726	377.627	56.600	14.000
7.000	6.056	1754.264	33.864	48.660	1.000	18.065	377.594	56.600	14.000
7.100	6.319	1728.180	33.865	48.659	1.000	18.511	377.547	56.600	14.984
7.200	6.587	1709.883	33.865	48.659	1.000	19.273	377.457	56.600	15.986
7.300	6.845	1743.243	33.865	48.660	1.000	20.704	377.330	56.600	16.991
7.400	7.141	1813.388	33.866	48.661	1.000	22.575	377.171	56.501	18.970
7.500	7.452	1901.569	33.867	48.662	1.000	24.824	376.983	56.500	19.000
7.600	7.774	2038.550	33.866	48.662	1.000	26.870	376.829	56.500	19.000
7.700	8.102	2129.650	33.867	48.661	1.000	28.397	376.713	56.500	19.000
7.800	8.430	2166.836	33.867	48.661	1.000	29.472	376.615	56.500	19.000
7.900	8.743	2168.739	33.867	48.662	1.000	30.094	376.565	56.500	19.000
8.000	9.045	2125.325	33.868	48.663	1.000	30.645	376.496	56.500	19.000
8.100	9.373	2093.098	33.868	48.664	1.000	31.267	376.429	56.500	19.000
8.200	9.669	2072.025	33.870	48.664	1.000	31.751	376.362	56.500	19.000
8.300	9.964	2050.472	33.869	48.664	1.000	32.019	376.322	56.500	16.553
8.400	10.244	2013.793	33.869	48.664	1.000	31.331	376.352	56.500	16.012
8.500	10.508	1897.380	33.869	48.664	1.000	30.100	376.456	56.500	16.494
8.600	10.773	1772.617	33.869	48.664	1.000	29.243	376.530	56.500	16.997
8.700	11.021	1684.029	33.870	48.663	1.000	29.200	376.525	56.500	17.494
8.800	11.262	1652.488	33.871	48.663	1.000	30.210	376.428	56.500	17.996
8.900	11.504	1665.122	33.871	48.664	1.000	31.345	376.343	56.500	18.000
9.000	11.747	1703.326	33.871	48.664	1.000	32.132	376.274	56.500	18.496
9.100	12.016	1726.403	33.870	48.665	1.000	33.059	376.178	56.500	18.500
9.200	12.287	1739.178	33.871	48.664	1.000	34.083	376.083	56.500	18.500
9.300	12.547	1740.650	33.870	48.664	1.000	34.678	376.030	56.500	18.500
9.400	12.805	1741.514	33.870	48.664	1.000	35.022	375.975	56.500	19.460
9.500	13.074	1743.033	33.871	48.665	1.000	36.031	375.882	56.500	19.997
9.600	13.340	1744.519	33.871	48.665	1.000	37.259	375.790	56.500	20.000
9.700	13.604	1768.570	33.871	48.665	1.000	38.271	375.699	56.500	20.488
9.800	13.860	1809.705	33.871	48.665	1.000	39.400	375.592	56.500	21.493
9.900	14.154	1823.585	33.870	48.665	1.000	40.882	375.465	56.500	21.500
10.000	14.438	1840.153	33.871	48.665	1.000	42.165	375.353	56.500	21.500
10.100	14.704	1879.464	33.871	48.666	1.000	43.441	375.241	56.500	21.977
10.200	14.984	1890.461	33.872	48.666	1.000	45.224	375.103	56.500	22.495
10.300	15.275	1893.490	33.873	48.665	1.000	46.335	375.043	56.500	22.500
10.400	15.557	1915.372	33.872	48.664	1.000	46.778	374.983	56.500	22.977
10.500	15.847	1907.796	33.873	48.665	1.000	47.043	374.917	56.500	23.000
10.600	16.139	1900.100	33.872	48.665	1.000	47.252	374.856	56.500	23.000
10.700	16.395	1905.741	33.873	48.665	1.000	47.381	374.835	56.500	22.506
10.800	16.679	1867.965	33.873	48.665	1.000	47.048	374.845	56.500	21.019
10.900	16.922	1832.979	33.873	48.666	1.000	45.490	374.943	56.500	21.000
11.000	17.159	1760.564	33.873	48.666	1.000	44.245	375.031	56.500	21.000
11.100	17.411	1650.415	33.873	48.667	1.000	44.147	375.032	56.500	21.000
11.200	17.646	1631.318	33.874	48.666	1.000	44.324	375.011	56.500	21.000
11.300	17.864	1608.204	33.873	48.666	1.000	44.719	374.965	56.500	21.497
11.400	18.103	1612.857	33.873	48.667	1.000	45.202	374.910	56.500	21.500
11.500	18.349	1621.516	33.873	48.667	1.000	45.537	374.884	56.500	21.500
11.600	18.587	1590.743	33.873	48.667	1.000	45.860	374.835	56.500	21.500
11.700	18.816	1597.731	33.872	48.666	1.000	46.101	374.822	56.500	21.500
11.800	19.054	1575.713	33.873	48.666	1.000	46.392	374.785	56.500	21.500
11.900	19.271	1582.175	33.873	48.666	1.000	46.546	374.761	56.500	21.500
12.000	19.509	1566.102	33.873	48.667	1.000	46.788	374.733	56.500	21.500
12.100	19.735	1539.943	33.873	48.667	1.000	47.119	374.698	56.500	21.500
12.200	19.948	1543.984	33.873	48.668	1.000	47.301	374.654	56.500	21.500
12.300	20.173	1526.342	33.872	48.667	1.000	47.525	374.617	56.500	21.500
12.400	20.392	1540.463	33.872	48.667	1.000	47.708	374.601	56.500	21.500
12.500	20.631	1496.675	33.872	48.667	1.000	47.823	374.588	56.500	21.994
12.600	20.831	1494.407	33.872	48.668	1.000	48.050	374.566	56.500	22.000
12.700	21.054	1477.844	33.872	48.669	1.000	48.289	374.524	56.500	22.000
12.800	21.268	1489.683	33.871	48.667	1.000	48.352	374.514	56.500	22.000
12.900	21.492	1456.806	33.873	48.667	1.000	48.585	374.480	56.401	22.000
13.000	21.695	1452.021	33.872	48.668	1.000	48.792	374.457	56.400	22.000
13.100	21.892	1441.632	33.871	48.668	1.000	48.786	374.444	56.400	22.000
13.200	22.096	1451.558	33.871	48.667	1.000	48.917	374.416	56.400	22.000
13.300	22.320	1414.479	33.871	48.665	1.000	48.946	374.407	56.400	22.000
13.400	22.529	1407.664	33.870	48.666	1.000	48.953	374.404	56.400	22.000
13.500	22.724	1401.485	33.871	48.665	1.000	48.996	374.391	56.400	22.000
13.600	22.917	1407.306	33.871	48.665	1.000	49.135	374.353	56.400	22.000
13.700	23.109	1366.409	33.871	48.666	1.000	49.121	374.332	56.400	22.000
13.800	23.303	1362.158	33.869	48.665	1.000	49.259	374.322	56.400	22.000
13.900	23.501	1360.939	33.865	48.665	1.000	49.393	374.306	56.400	22.000
14.000	23.698	1363.339	33.864	48.666	1.000	49.952	374.226	56.400	24.478
14.100	23.938	1349.761	33.864	48.666	1.000	59.032	373.439	56.400	34.411
14.200	24.263	1547.080	33.864	48.666	1.000	81.940	371.587	56.400	34.995
14.300	24.664	2211.066	33.864	48.665	1.000	93.334	370.731	56.400	36.485
14.400	25.051	2584.024	33.865	48.666	1.000	97.201	370.376	56.400	36.500
14.500	25.436	2593.396	33.862	48.666	1.000	98.148	370.285	56.400	36.005
14.600	25.787	2593.592	33.859	48.667	1.000	95.582	370.408	56.400	35.012
14.700	26.129	2526.853	33.858	48.668	1.000	91.464	370.662	56.400	34.506
14.800	26.467	2341.223	33.858	48.668	1.000	87.453	370.969	56.400	34.006
14.900	26.766	2212.015	33.858	48.668	1.000	84.082	371.210	56.400	34.000
15.000	27.056	2122.972	33.858	48.667	1.000	83.473	371.252	56.400	34.000
15.100	27.345	2042.639	33.857	48.667	1.000	83.705	371.202	56.400	33.502
15.200	27.641	2034.256	33.857	48.669	1.000	83.155	371.210	56.400	33.002
15.300	27.928	2029.305	33.855	48.672	1.000	80.232	371.413	56.400	29.516
15.400	28.170	1918.549	33.852	48.673	1.000	75.344	371.765	56.400	29.500
15.500	28.416	1770.185	33.851	48.674	1.000	73.709	371.917	56.400	30.494
15.600	28.662	1712.647	33.852	48.675	1.000	75.085	371.798	56.400	31.990
15.700	28.915	1713.351	33.851	48.673	1.000	78.958	371.469	56.400	33.986
15.800	29.197	1782.932	33.852	48.674	1.000	83.786	371.066	56.400	34.496
15.900	29.490	1909.702	33.851	48.675	1.000	87.551	370.754	56.400	34.996
16.000	29.783	1973.352	33.846	48.679	1.000	89.789	370.550	56.301	35.991
16.100	30.072	1994.101	33.842	48.683	1.000	92.276	370.332	56.300	36.496
16.200	30.370	2056.112	33.841	48.684	1.000	93.516	370.202	56.300	36.995
16.300	30.661	2052.391	33.841	48.684	1.000	94.038	370.133	56.300	37.495
16.400	30.954	2033.963	33.840	48.685	1.000	96.110	369.945	56.300	37.991
16.500	31.275	2078.580	33.842	48.684	1.000	98.585	369.734	56.300	38.000
16.600	31.586	2093.707	33.840	48.685	1.000	99.013	369.661	56.300	38.000
16.700	31.879	2093.791	33.835	48.689	1.000	98.119	369.694	56.300	36.024
16.800	32.165	2077.198	33.829	48.698	1.000	95.980	369.823	56.300	36.000
16.900	32.424	1995.014	33.827	48.701	1.000	95.268	369.874	56.300	36.000
17.000	32.704	1962.783	33.825	48.702	1.000	95.520	369.843	56.300	36.000
17.100	32.992	1949.960	33.826	48.703	1.000	95.838	369.801	56.300	36.000
17.200	33.253	1917.761	33.827	48.703	1.000	96.316	369.723	56.300	36.000
17.300	33.531	1925.616	33.826	48.702	1.000	96.937	369.654	56.300	36.000
17.400	33.817	1916.144	33.825	48.703	1.000	97.491	369.583	56.300	36.000
17.500	34.044	1918.359	33.826	48.702	1.000	98.186	369.516	56.300	36.000
17.600	34.355	1925.950	33.825	48.703	1.000	99.159	369.421	56.300	37.490
17.700	34.620	1903.626	33.826	48.703	1.000	101.073	369.240	56.300	37.997
17.800	34.895	1951.754	33.825	48.704	1.000	103.056	369.062	56.300	38.496
17.900	35.188	1956.271	33.817	48.715	1.000	104.884	368.880	56.300	39.492
18.000	35.482	1980.287	33.812	48.729	1.000	106.993	368.686	56.300	39.500
