Timestamp [sec]	Dyno Speed [mph]	Dyno Tractive Effort [N]	Cell Temp [C]	Cell RH [%]	Phase #	HV Battery Voltage w/500A max clamp [V]	HV Battery Current w/500A max clamp [A]	HV Battery Voltage w/200A max clamp [V]	HV Battery Current w/200A max clamp [A]	DCDC Outlet Voltage [V]	DCDC Outlet Current [A]	Accelerator Pedal Position [%]	Inverter Cooling Hose Temp [C]
-10.000000	-0.004490	-2.716720	39.077839	31.043027	1.000000	0.000000	0.000000	0.000000	0.000000	0.000000	0.000000	0.000000	0.000000
-9.000000	-0.005786	-2.695101	39.080432	31.076737	1.000000	0.000000	0.000000	0.000000	0.000000	12.679000	0.000000	0.000000	49.330342
-8.000000	-0.005786	-2.738338	39.080432	31.085813	1.000000	0.000000	0.000000	0.000000	0.000000	12.679600	0.000000	0.000000	49.338773
-7.000000	-0.004814	-2.738338	39.077839	31.096186	1.000000	0.000000	0.000000	0.000000	0.000000	12.661400	0.000000	0.000000	49.318143
-6.000000	-0.004814	-2.738338	39.077515	31.103641	1.000000	0.000000	0.000000	0.000000	0.000000	12.619600	0.000000	0.000000	49.313202
-5.000000	-0.005138	-2.759956	39.079460	31.105586	1.000000	0.000000	0.000000	0.000000	0.000000	12.592800	0.000000	0.000000	49.305357
-4.000000	-0.004166	-2.759956	39.075895	31.109799	1.000000	0.000000	0.000000	0.000000	0.000000	12.582600	0.000000	0.000000	49.317557
-3.000000	-0.005786	-2.738338	39.076219	31.111744	1.000000	0.000000	0.000000	0.000000	0.000000	12.582600	0.000000	0.000000	49.341090
-2.000000	-0.007083	-2.738338	39.073626	31.106882	1.000000	0.000000	0.000000	0.000000	0.000000	12.542400	0.000000	0.000000	49.311164
-1.000000	-0.004490	-2.738338	39.071358	31.091324	1.000000	0.000000	0.000000	0.000000	0.000000	12.491200	0.000000	0.000000	49.309713
0.000000	-0.004814	-2.738338	39.071034	31.075765	1.000000	229.452000	0.966000	229.572000	0.942000	13.390400	23.604000	0.000000	49.312616
1.000000	-0.004490	-2.738338	39.069089	31.063124	1.000000	382.432000	1.520000	382.644000	1.480000	14.034200	36.964000	0.000000	49.312616
2.000000	-0.005786	-2.759956	39.068441	31.053400	1.000000	382.440000	1.514000	382.660000	1.468000	14.113400	36.436000	0.000000	49.314068
3.000000	-0.004814	-2.781574	39.069089	31.040758	1.000000	382.326000	2.702000	382.564000	2.628000	14.212800	42.078000	0.000000	49.326268
4.000000	-0.005786	-2.673483	39.068117	31.031359	1.000000	382.208000	3.824000	382.482000	3.734000	14.287600	43.078000	0.000000	49.312616
5.000000	-0.005138	-2.716720	39.067793	31.037841	1.000000	382.174000	4.126000	382.452000	4.042000	14.341800	40.878000	0.000000	49.315520
6.000000	-0.006111	-2.738338	39.066172	31.044972	1.000000	382.146000	4.248000	382.428000	4.174000	14.363600	40.064000	0.000000	49.310579
7.000000	-0.005138	-2.738338	39.068765	31.056317	1.000000	382.130000	4.372000	382.384000	4.284000	14.363400	40.144000	0.000000	49.304187
8.000000	-0.004166	-2.738338	39.067145	31.086786	1.000000	382.112000	4.402000	382.372000	4.320000	14.363000	40.930000	0.000000	49.268453
9.000000	-0.005462	-2.716720	39.067793	31.108827	1.000000	382.124000	4.390000	382.380000	4.314000	14.362400	41.880000	0.000000	49.249275
10.000000	-0.006759	-2.738338	39.066496	31.125034	1.000000	382.116000	4.414000	382.380000	4.334000	14.361400	42.908000	0.000000	49.217895
11.000000	-0.004814	-2.738338	39.068441	31.146427	1.000000	382.106000	4.364000	382.362000	4.278000	14.361600	43.124000	0.000000	49.131597
12.000000	-0.004814	-2.738338	39.066820	31.189213	1.000000	382.122000	4.302000	382.368000	4.224000	14.362000	42.854000	0.000000	48.954045
13.000000	-0.004166	-2.759956	39.066820	31.221626	1.000000	382.124000	4.326000	382.380000	4.238000	14.361400	43.544000	0.000000	48.704390
14.000000	-0.004166	-2.738338	39.067145	31.250798	1.000000	382.114000	4.332000	382.380000	4.238000	14.361600	43.370000	0.000000	48.492483
15.000000	-0.005138	-2.738338	39.067793	31.273164	1.000000	382.080000	4.446000	382.344000	4.356000	14.361400	43.030000	0.000000	48.308455
16.000000	-0.005786	-2.738338	39.065524	31.298446	1.000000	382.066000	4.494000	382.338000	4.410000	14.361000	43.206000	0.000000	48.204948
17.000000	-0.004814	-2.738338	39.065200	31.335722	1.000000	382.076000	4.488000	382.338000	4.402000	14.362800	41.986000	0.000000	48.140687
18.000000	-0.004490	-2.716720	39.065848	31.357439	1.000000	382.080000	4.440000	382.336000	4.350000	14.367000	38.910000	0.000000	48.192153
19.000000	-0.005462	-2.759956	39.063904	31.375266	1.000000	382.032000	5.054000	382.304000	4.976000	14.357600	35.156000	0.000000	48.239256
20.000000	0.462243	854.365049	39.063580	31.389204	1.000000	381.526000	10.722000	381.812000	10.628000	14.350600	33.052000	6.500000	48.344215
21.000000	3.043860	2431.743307	39.062931	31.407032	1.000000	380.826000	18.626000	381.092000	18.492000	14.351000	32.402000	15.000000	48.369218
22.000000	5.781379	2055.697712	39.062607	31.425183	1.000000	379.898000	29.136000	380.124000	28.908000	14.289200	31.582000	17.500000	48.388406
23.000000	8.723093	2442.061042	39.061959	31.434259	1.000000	378.940000	39.214000	379.168000	38.886000	14.188000	31.414000	22.000000	48.424165
24.000000	11.727363	2301.700933	39.062283	31.448197	1.000000	378.342000	44.580000	378.594000	44.208000	14.089200	29.382000	22.000000	48.529109
25.000000	14.375100	2048.191945	39.057746	31.466348	1.000000	378.008000	46.958000	378.274000	46.554000	14.051800	26.890000	22.000000	48.670962
26.000000	16.691263	1809.889280	39.057422	31.483203	1.000000	379.442000	28.906000	379.694000	28.630000	14.001400	26.120000	13.000000	48.918588
27.000000	17.345337	401.186297	39.057098	31.498762	1.000000	379.798000	24.822000	380.056000	24.600000	13.905200	26.120000	5.500000	49.192612
28.000000	18.172167	1114.860192	39.055478	31.510755	1.000000	378.252000	42.958000	378.516000	42.606000	13.832800	26.160000	21.000000	49.418650
29.000000	20.159996	1622.288458	39.053857	31.529555	1.000000	378.000000	44.236000	378.254000	43.876000	13.750800	25.962000	22.000000	49.644653
30.000000	21.679148	1114.968344	39.048348	31.547382	1.000000	379.178000	29.152000	379.416000	28.904000	13.680000	25.968000	15.500000	49.805854
31.000000	22.369199	513.772571	39.044459	31.559051	1.000000	380.266000	15.814000	380.532000	15.674000	13.600600	25.862000	10.500000	49.917088
32.000000	22.497875	-102.787751	39.042190	31.570072	1.000000	381.426000	2.692000	381.704000	2.622000	13.529800	25.622000	0.000000	49.979816
33.000000	21.789348	-387.500515	39.036032	31.586603	1.000000	381.748000	0.190000	382.030000	0.134000	13.449000	25.322000	0.500000	50.033250
34.000000	21.346600	-167.707452	39.026958	31.607671	1.000000	381.582000	2.822000	381.842000	2.732000	13.377800	25.290000	2.500000	50.048931
35.000000	20.966083	-151.580214	39.018532	31.622258	1.000000	381.840000	0.040000	382.086000	-0.004000	13.297600	24.866000	1.500000	50.034702
36.000000	20.375536	-356.716084	39.011078	31.640409	1.000000	382.056000	-1.836000	382.306000	-1.872000	13.202800	24.314000	0.000000	50.014084
37.000000	19.717896	-369.968089	39.003948	31.655319	1.000000	383.370000	-17.208000	383.596000	-17.136000	13.166000	24.620000	0.000000	49.976332
38.000000	16.446228	-2624.885060	38.984827	31.693567	1.000000	382.988000	-11.008000	383.222000	-10.944000	13.166000	24.386000	0.000000	49.944968
39.000000	15.008431	-183.142905	38.976725	31.715933	1.000000	381.638000	5.562000	381.894000	5.520000	13.166000	24.120000	4.500000	49.897921
40.000000	15.153312	300.561646	38.963762	31.739919	1.000000	381.110000	10.890000	381.370000	10.802000	13.164800	25.128000	6.500000	49.871492
41.000000	15.441131	265.174303	38.950150	31.764229	1.000000	381.056000	11.154000	381.304000	11.054000	13.163400	26.348000	5.000000	49.853777
42.000000	15.538367	204.025148	38.933298	31.800532	1.000000	380.812000	13.772000	381.070000	13.660000	13.162400	26.752000	5.500000	49.830252
43.000000	15.949352	572.390982	38.917093	31.838456	1.000000	379.852000	24.928000	380.098000	24.724000	13.162600	26.490000	11.000000	49.820958
44.000000	17.094468	1176.571790	38.903806	31.869249	1.000000	378.734000	37.086000	378.976000	36.790000	13.162400	26.286000	16.500000	49.848840
45.000000	18.747481	1541.477145	38.893435	31.902311	1.000000	377.394000	51.586000	377.632000	51.170000	13.162000	26.216000	21.000000	49.842451
46.000000	20.919086	1866.972027	38.875287	31.945421	1.000000	377.172000	51.984000	377.408000	51.564000	13.162000	26.210000	25.500000	49.867429
47.000000	22.633357	920.619017	38.856490	31.985938	1.000000	379.528000	22.726000	379.762000	22.490000	13.162600	26.218000	11.500000	49.903730
48.000000	22.760737	20.945417	38.842554	32.015758	1.000000	380.764000	8.692000	381.000000	8.576000	13.162400	26.402000	5.500000	49.948746
49.000000	22.685541	106.277355	38.831859	32.046875	1.000000	380.894000	7.784000	381.134000	7.672000	13.162000	26.566000	6.000000	50.024250
50.000000	22.453795	-334.600583	38.816951	32.076047	1.000000	381.572000	0.544000	381.812000	0.472000	13.162000	27.268000	0.000000	50.082039
51.000000	21.671693	-451.036640	38.793941	32.125316	1.000000	383.606000	-22.920000	383.804000	-22.792000	13.162600	27.462000	0.000000	50.143307
52.000000	19.097206	-2215.261524	38.780330	32.153840	1.000000	384.070000	-26.796000	384.288000	-26.640000	13.163000	27.254000	0.000000	50.171184
53.000000	16.874390	-1182.015529	38.768663	32.186578	1.000000	382.646000	-8.232000	382.896000	-8.192000	13.163000	26.672000	0.000000	50.224610
54.000000	16.013527	-322.840238	38.756348	32.219315	1.000000	381.672000	3.516000	381.916000	3.462000	13.163600	26.180000	0.000000	50.251033
55.000000	15.948379	498.717807	38.731717	32.281225	1.000000	379.834000	24.508000	380.092000	24.292000	13.162800	26.166000	14.000000	50.296617
56.000000	17.412754	1409.834326	38.716809	32.328873	1.000000	378.006000	44.560000	378.264000	44.188000	13.162600	26.270000	19.000000	50.318105
57.000000	19.380812	1652.419659	38.703198	32.365176	1.000000	377.246000	51.884000	377.496000	51.434000	13.163000	26.418000	22.000000	50.370073
58.000000	21.334932	1599.295302	38.690559	32.398562	1.000000	377.316000	49.330000	377.554000	48.902000	13.163000	26.364000	22.500000	50.402880
59.000000	22.969794	1190.458523	38.664956	32.461769	1.000000	377.942000	40.696000	378.178000	40.356000	13.163600	26.322000	17.500000	50.407814
60.000000	24.051383	911.339567	38.645835	32.512658	1.000000	378.544000	32.696000	378.796000	32.414000	13.162800	26.482000	15.500000	50.440621
61.000000	24.831541	600.813341	38.634168	32.557713	1.000000	379.334000	22.896000	379.612000	22.692000	13.162600	26.600000	10.500000	50.471398
62.000000	25.107043	301.816209	38.617640	32.598230	1.000000	380.180000	13.216000	380.440000	13.080000	13.162400	26.602000	7.500000	50.494912
63.000000	25.058749	70.089691	38.600139	32.644257	1.000000	380.558000	9.338000	380.798000	9.236000	13.162600	26.560000	6.000000	50.496941
64.000000	24.936231	24.254869	38.574860	32.710381	1.000000	380.814000	6.820000	381.060000	6.706000	13.163000	26.558000	4.000000	50.506232
65.000000	24.664619	-64.912520	38.561897	32.755111	1.000000	380.608000	9.660000	380.852000	9.530000	13.163000	26.540000	6.000000	50.501298
66.000000	24.667536	159.574668	38.546341	32.800166	1.000000	380.338000	13.010000	380.584000	12.880000	13.163000	26.514000	7.000000	50.483594
67.000000	24.710644	163.424880	38.527220	32.854621	1.000000	380.364000	12.540000	380.608000	12.404000	13.163000	26.390000	7.500000	50.485622
68.000000	24.715830	102.967903	38.503562	32.927227	1.000000	380.472000	11.382000	380.700000	11.266000	13.163600	26.424000	6.000000	50.455721
69.000000	24.662674	85.598690	38.485413	32.983303	1.000000	380.400000	12.332000	380.632000	12.208000	13.163400	26.524000	6.000000	50.428725
70.000000	24.620538	196.194942	38.469209	33.033544	1.000000	379.648000	21.286000	379.912000	21.086000	13.162400	26.486000	7.500000	50.436563
71.000000	25.077872	671.955765	38.453653	33.082488	1.000000	379.062000	27.448000	379.324000	27.196000	13.162600	26.474000	14.500000	50.395918
72.000000	25.736808	442.305701	38.427078	33.172598	1.000000	379.600000	20.396000	379.856000	20.208000	13.163000	26.592000	9.000000	50.406662
73.000000	25.841175	182.654309	38.407957	33.231590	1.000000	380.452000	10.282000	380.700000	10.178000	13.163000	26.564000	6.000000	50.394465
74.000000	25.652861	-37.370828	38.391753	33.285721	1.000000	380.944000	4.732000	381.196000	4.646000	13.163000	26.530000	4.000000	50.403182
75.000000	25.308321	-133.723513	38.376197	33.338555	1.000000	380.990000	4.948000	381.226000	4.834000	13.163000	26.550000	3.000000	50.417406
76.000000	25.103153	195.264835	38.351242	33.419265	1.000000	380.258000	13.602000	380.508000	13.448000	13.162400	26.532000	8.500000	50.411020
77.000000	25.373794	368.308078	38.330177	33.513264	1.000000	379.480000	22.488000	379.726000	22.270000	13.162600	26.550000	10.000000	50.425244
78.000000	25.811356	511.717682	38.315917	33.575822	1.000000	379.806000	17.854000	380.060000	17.682000	13.163000	26.504000	10.500000	50.435988
79.000000	25.939708	165.479769	38.299389	33.626712	1.000000	380.770000	6.306000	381.034000	6.216000	13.163600	26.364000	5.000000	50.421764
80.000000	25.554653	-137.528331	38.279296	33.696077	1.000000	380.198000	13.510000	380.464000	13.368000	13.163400	26.348000	9.000000	50.431056
81.000000	25.884283	393.420980	38.257582	33.779380	1.000000	379.538000	21.322000	379.784000	21.126000	13.163000	26.338000	10.500000	50.420312
82.000000	26.225906	398.590648	38.240405	33.842586	1.000000	379.128000	25.740000	379.370000	25.510000	13.163000	26.394000	10.500000	50.407540
83.000000	26.744822	613.683436	38.226470	33.898986	1.000000	378.836000	28.392000	379.092000	28.154000	13.163000	26.402000	13.000000	50.451092
84.000000	27.332128	601.094537	38.209942	33.955061	1.000000	378.184000	35.406000	378.444000	35.110000	13.163000	26.466000	15.500000	50.448186
85.000000	28.252306	873.464707	38.182070	34.054571	1.000000	377.544000	42.184000	377.822000	41.838000	13.163000	26.488000	17.500000	50.441800
86.000000	29.225963	874.243402	38.166514	34.120046	1.000000	378.036000	35.118000	378.308000	34.822000	13.163000	26.466000	16.000000	50.426123
87.000000	29.869018	603.906490	38.154199	34.182604	1.000000	378.682000	26.956000	378.912000	26.744000	13.163000	26.542000	13.000000	50.436868
88.000000	30.308849	469.386972	38.137347	34.242569	1.000000	378.686000	26.956000	378.926000	26.752000	13.163000	26.584000	12.500000	50.460383
89.000000	30.678670	453.034384	38.114013	34.342727	1.000000	379.178000	20.906000	379.426000	20.722000	13.163000	26.586000	10.500000	50.480992
90.000000	30.774286	163.511402	38.096188	34.434458	1.000000	380.044000	10.806000	380.296000	10.688000	13.163000	26.596000	6.500000	50.473154
91.000000	30.575600	-0.792692	38.081280	34.502202	1.000000	380.402000	7.048000	380.674000	6.958000	13.163000	26.534000	6.000000	50.469674
92.000000	30.385341	29.338013	38.065400	34.569622	1.000000	379.968000	13.116000	380.212000	12.984000	13.163000	26.478000	7.500000	50.461836
93.000000	30.338020	213.239701	38.043362	34.674318	1.000000	379.462000	18.994000	379.694000	18.822000	13.163000	26.506000	9.500000	50.453998
94.000000	30.480957	258.512138	38.022621	34.768641	1.000000	378.880000	25.778000	379.114000	25.544000	13.163000	26.434000	9.500000	50.427003
95.000000	30.769748	454.440360	38.008685	34.845461	1.000000	379.768000	14.884000	380.016000	14.704000	13.163600	26.388000	5.500000	50.427004
96.000000	30.479660	-75.008258	37.994101	34.917095	1.000000	380.626000	4.736000	380.880000	4.622000	13.163400	26.466000	5.000000	50.417712
97.000000	30.139658	-81.709926	37.975304	34.996185	1.000000	380.526000	6.376000	380.770000	6.284000	13.163000	26.546000	6.000000	50.414233
98.000000	29.954261	32.820508	37.950998	35.129728	1.000000	379.638000	17.276000	379.878000	17.118000	13.163000	26.558000	7.500000	50.384332
99.000000	30.184062	414.380845	37.935766	35.200390	1.000000	378.936000	25.152000	379.176000	24.930000	13.162400	26.538000	13.000000	50.385785
100.000000	30.583055	461.362091	37.920858	35.269755	1.000000	378.892000	24.974000	379.120000	24.750000	13.162600	26.596000	12.500000	50.370107
101.000000	30.924353	399.758690	37.905950	35.345603	1.000000	379.096000	22.080000	379.328000	21.890000	13.163000	26.586000	11.000000	50.345137
102.000000	31.117205	242.462377	37.884885	35.448354	1.000000	379.344000	18.872000	379.590000	18.714000	13.163600	26.562000	10.000000	50.321049
103.000000	31.213469	222.821970	37.868033	35.529063	1.000000	379.944000	11.716000	380.194000	11.614000	13.164000	26.600000	9.000000	50.346591
104.000000	31.047843	-55.400476	37.855393	35.590973	1.000000	380.610000	4.332000	380.854000	4.250000	13.163400	26.560000	3.500000	50.316688
105.000000	30.609308	-131.799486	37.841134	35.654180	1.000000	380.662000	4.556000	380.890000	4.430000	13.163000	26.688000	4.000000	50.323074
106.000000	30.289077	0.980556	37.821364	35.757903	1.000000	379.968000	13.234000	380.212000	13.072000	13.163000	26.704000	8.500000	50.311756
107.000000	30.385341	252.628668	37.805808	35.833103	1.000000	379.658000	16.434000	379.906000	16.270000	13.163000	26.640000	9.000000	50.313210
108.000000	30.481281	239.304338	37.792197	35.896633	1.000000	379.320000	20.046000	379.560000	19.868000	13.163000	26.544000	9.500000	50.264721
109.000000	30.748356	423.941485	37.783123	35.962757	1.000000	378.820000	25.294000	379.084000	25.092000	13.162400	26.570000	12.000000	50.276921
110.000000	31.136976	510.787575	37.764650	36.044115	1.000000	378.654000	26.822000	378.904000	26.576000	13.162600	26.516000	13.000000	50.272560
111.000000	31.576807	482.797826	37.750066	36.148487	1.000000	378.686000	26.060000	378.928000	25.826000	13.163600	26.392000	12.500000	50.254857
112.000000	31.918754	442.868092	37.740019	36.215259	1.000000	378.902000	23.210000	379.146000	23.018000	13.164000	26.498000	12.500000	50.245564
113.000000	32.133322	319.142164	37.725760	36.274900	1.000000	379.474000	16.108000	379.720000	15.964000	13.163400	26.530000	10.500000	50.240632
114.000000	32.137211	89.989661	37.711824	36.355285	1.000000	380.934000	-1.106000	381.172000	-1.136000	13.163000	26.904000	0.000000	50.227861
115.000000	31.316215	-524.171281	37.693027	36.466788	1.000000	383.612000	-31.734000	383.830000	-31.536000	13.163000	27.258000	0.000000	50.256311
116.000000	29.032463	-1511.932128	37.680712	36.544256	1.000000	385.606000	-53.152000	385.822000	-52.788000	13.163000	27.178000	0.000000	50.243540
117.000000	26.114733	-2291.293069	37.670341	36.613621	1.000000	386.828000	-64.552000	387.030000	-64.080000	13.163600	27.150000	0.000000	50.213636
118.000000	22.070037	-3006.448231	37.657054	36.681041	1.000000	386.192000	-53.842000	386.388000	-53.436000	13.164000	27.106000	0.000000	50.204343
119.000000	18.617184	-2329.449363	37.638581	36.786061	1.000000	385.014000	-38.454000	385.238000	-38.178000	13.163400	27.188000	0.000000	50.216544
120.000000	15.422656	-2380.122652	37.625942	36.846351	1.000000	384.370000	-30.378000	384.604000	-30.168000	13.163600	27.250000	0.000000	50.207250
121.000000	12.192475	-2356.904600	37.616543	36.892378	1.000000	383.710000	-22.062000	383.940000	-21.914000	13.164000	27.116000	0.000000	50.247902
122.000000	8.992113	-2250.131834	37.606172	36.929653	1.000000	382.938000	-12.214000	383.156000	-12.154000	13.162800	27.868000	0.000000	50.309163
123.000000	5.934688	-2052.800052	37.590292	36.985729	1.000000	381.980000	-1.000000	382.220000	-1.040000	13.158400	31.792000	0.000000	50.314094
124.000000	3.078217	-2276.289971	37.578301	37.034673	1.000000	381.458000	4.476000	381.718000	4.384000	13.159000	31.160000	0.000000	50.343427
125.000000	0.648612	-1379.066163	37.570523	37.063521	1.000000	381.378000	4.786000	381.614000	4.686000	13.160400	29.240000	0.000000	50.368398
126.000000	0.003937	-1.052112	37.563393	37.092045	1.000000	381.394000	4.192000	381.626000	4.092000	13.155800	33.008000	0.000000	50.386984
127.000000	-0.001897	-3.192322	37.553671	37.115059	1.000000	381.428000	3.804000	381.644000	3.716000	13.155400	33.456000	0.000000	50.394822
